**Header1 Sampling Parameters**
TraceFile	C:\Guilherme\Medida 1112_1530_1_cdifusor.dat
Comment	
Date	1/1/2015
Time	04:12:37
File Created By	CDI Spec32.exe
Software Version	1,7,2,2
Username	LAS
Computername	NOTE-CESAR
DeviceNum	0	
SerialNo	SNAB0829	
SetupFile	C:\CDI32\SETUP _63355_FIB2_COMDIF.stp
BoardDegC	45.6988	
ArrayDegC	8.19174	
TECA	0.473633	
ExtV	-5.87592	
DacOffset	93171.9	
IntTime	0.499973	
Processing	none	
CalUnits	uwatts / cm² / nm	
TrigMode	TM_SynchRead	
SampleAvg	1	
Scans Averaged	1	
WaveUnits	nm	
WaveStart	899	
WaveEnd	1703.35	
WaveStep	1	
**HeaderEnd**
899	28.86314	
900	29.01693	
901	29.17072	
902	29.32451	
903	29.4783	
904	29.63209	
905	29.73065	
906	29.65623	
907	29.5818	
908	29.50738	
909	29.43296	
910	29.35853	
911	29.28411	
912	29.40719	
913	29.56874	
914	29.73029	
915	29.89183	
916	30.05338	
917	30.21493	
918	30.36131	
919	30.48792	
920	30.61452	
921	30.74113	
922	30.86773	
923	30.99434	
924	31.07394	
925	29.68456	
926	28.29518	
927	26.9058	
928	25.51642	
929	24.12704	
930	22.73766	
931	21.44946	
932	20.22094	
933	18.99242	
934	17.7639	
935	16.53539	
936	15.30687	
937	14.42025	
938	14.69114	
939	14.96203	
940	15.23292	
941	15.50381	
942	15.7747	
943	16.04559	
944	16.16368	
945	16.25004	
946	16.33639	
947	16.42275	
948	16.5091	
949	16.59546	
950	16.78889	
951	17.12425	
952	17.45962	
953	17.79498	
954	18.13034	
955	18.46571	
956	18.81196	
957	19.48764	
958	20.16333	
959	20.83902	
960	21.51471	
961	22.1904	
962	22.86609	
963	23.81499	
964	24.92027	
965	26.02555	
966	27.13083	
967	28.2361	
968	29.34138	
969	30.30016	
970	30.79501	
971	31.28985	
972	31.78469	
973	32.27954	
974	32.77438	
975	33.26923	
976	33.65628	
977	34.02372	
978	34.39115	
979	34.75858	
980	35.12601	
981	35.49345	
982	35.9868	
983	36.63279	
984	37.27879	
985	37.92478	
986	38.57077	
987	39.21677	
988	39.83783	
989	40.06821	
990	40.2986	
991	40.52899	
992	40.75938	
993	40.98977	
994	41.22016	
995	41.3002	
996	41.30585	
997	41.31151	
998	41.31716	
999	41.32281	
1000	41.32847	
1001	41.29723	
1002	41.17062	
1003	41.04402	
1004	40.91741	
1005	40.79081	
1006	40.66421	
1007	40.5376	
1008	40.5248	
1009	40.52605	
1010	40.52731	
1011	40.52856	
1012	40.52981	
1013	40.53107	
1014	40.51732	
1015	40.48869	
1016	40.46006	
1017	40.43143	
1018	40.40279	
1019	40.37416	
1020	40.3388	
1021	40.25164	
1022	40.16448	
1023	40.07732	
1024	39.99016	
1025	39.903	
1026	39.81584	
1027	39.69209	
1028	39.55474	
1029	39.4174	
1030	39.28005	
1031	39.1427	
1032	39.00535	
1033	38.88187	
1034	38.78481	
1035	38.68775	
1036	38.59069	
1037	38.49363	
1038	38.39657	
1039	38.29951	
1040	38.19392	
1041	38.08797	
1042	37.98201	
1043	37.87606	
1044	37.77011	
1045	37.66416	
1046	37.54476	
1047	37.41551	
1048	37.28625	
1049	37.157	
1050	37.02774	
1051	36.89849	
1052	36.76225	
1053	36.59732	
1054	36.4324	
1055	36.26748	
1056	36.10256	
1057	35.93763	
1058	35.77271	
1059	35.5975	
1060	35.41996	
1061	35.24242	
1062	35.06487	
1063	34.88733	
1064	34.70978	
1065	34.51831	
1066	34.30882	
1067	34.09932	
1068	33.88983	
1069	33.68033	
1070	33.47084	
1071	33.26381	
1072	33.09761	
1073	32.93142	
1074	32.76522	
1075	32.59902	
1076	32.43282	
1077	32.26662	
1078	32.06055	
1079	31.83574	
1080	31.61092	
1081	31.3861	
1082	31.16128	
1083	30.93646	
1084	30.7026	
1085	30.44793	
1086	30.19327	
1087	29.9386	
1088	29.68393	
1089	29.42927	
1090	29.1746	
1091	28.70984	
1092	28.22877	
1093	27.7477	
1094	27.26663	
1095	26.78557	
1096	26.3045	
1097	25.77194	
1098	25.19792	
1099	24.62391	
1100	24.04989	
1101	23.47587	
1102	22.90186	
1103	22.32014	
1104	21.70361	
1105	21.08707	
1106	20.47054	
1107	19.85401	
1108	19.23747	
1109	18.62094	
1110	17.68869	
1111	16.68189	
1112	15.67509	
1113	14.66829	
1114	13.66148	
1115	12.65468	
1116	11.72233	
1117	10.88551	
1118	10.04868	
1119	9.211862	
1120	8.375039	
1121	7.538216	
1122	6.748585	
1123	6.60583	
1124	6.463075	
1125	6.32032	
1126	6.177565	
1127	6.034809	
1128	5.892054	
1129	5.944341	
1130	6.080626	
1131	6.216911	
1132	6.353196	
1133	6.48948	
1134	6.625766	
1135	6.803625	
1136	7.065493	
1137	7.327361	
1138	7.589229	
1139	7.851097	
1140	8.112965	
1141	8.374832	
1142	8.238311	
1143	8.087325	
1144	7.936339	
1145	7.785354	
1146	7.634368	
1147	7.483383	
1148	7.553115	
1149	7.770607	
1150	7.988098	
1151	8.205589	
1152	8.42308	
1153	8.640573	
1154	8.935124	
1155	9.481921	
1156	10.02872	
1157	10.57551	
1158	11.12231	
1159	11.66911	
1160	12.21591	
1161	12.71948	
1162	13.21664	
1163	13.71381	
1164	14.21098	
1165	14.70815	
1166	15.20531	
1167	15.58416	
1168	15.84844	
1169	16.11272	
1170	16.377	
1171	16.64128	
1172	16.90556	
1173	17.13701	
1174	17.17791	
1175	17.2188	
1176	17.2597	
1177	17.3006	
1178	17.34149	
1179	17.38239	
1180	17.34348	
1181	17.28297	
1182	17.22246	
1183	17.16195	
1184	17.10144	
1185	17.04094	
1186	17.05607	
1187	17.17271	
1188	17.28935	
1189	17.40599	
1190	17.52263	
1191	17.63927	
1192	17.74822	
1193	17.75327	
1194	17.75833	
1195	17.76338	
1196	17.76844	
1197	17.77349	
1198	17.77855	
1199	17.73664	
1200	17.67574	
1201	17.61483	
1202	17.55393	
1203	17.49303	
1204	17.43213	
1205	17.40696	
1206	17.44646	
1207	17.48596	
1208	17.52545	
1209	17.56495	
1210	17.60445	
1211	17.64396	
1212	17.69755	
1213	17.75114	
1214	17.80473	
1215	17.85832	
1216	17.91191	
1217	17.9655	
1218	18.0212	
1219	18.07805	
1220	18.1349	
1221	18.19174	
1222	18.24859	
1223	18.30544	
1224	18.35353	
1225	18.38072	
1226	18.40791	
1227	18.4351	
1228	18.46229	
1229	18.48948	
1230	18.51667	
1231	18.54708	
1232	18.57769	
1233	18.60829	
1234	18.6389	
1235	18.6695	
1236	18.70011	
1237	18.70528	
1238	18.69292	
1239	18.68056	
1240	18.66821	
1241	18.65585	
1242	18.6435	
1243	18.61905	
1244	18.55698	
1245	18.4949	
1246	18.43282	
1247	18.37074	
1248	18.30866	
1249	18.24659	
1250	18.15181	
1251	18.05316	
1252	17.95451	
1253	17.85586	
1254	17.7572	
1255	17.65855	
1256	17.51758	
1257	17.34155	
1258	17.16552	
1259	16.98949	
1260	16.81347	
1261	16.63744	
1262	16.45676	
1263	16.25749	
1264	16.05821	
1265	15.85894	
1266	15.65967	
1267	15.46039	
1268	15.26112	
1269	15.28406	
1270	15.3447	
1271	15.40534	
1272	15.46598	
1273	15.52662	
1274	15.58727	
1275	15.63176	
1276	15.6608	
1277	15.68984	
1278	15.71887	
1279	15.74791	
1280	15.77695	
1281	15.79525	
1282	15.76035	
1283	15.72546	
1284	15.69056	
1285	15.65566	
1286	15.62077	
1287	15.58587	
1288	15.51232	
1289	15.43063	
1290	15.34893	
1291	15.26724	
1292	15.18555	
1293	15.10386	
1294	14.97676	
1295	14.80143	
1296	14.6261	
1297	14.45078	
1298	14.27545	
1299	14.10012	
1300	13.91674	
1301	13.68587	
1302	13.455	
1303	13.22412	
1304	12.99325	
1305	12.76238	
1306	12.53151	
1307	12.29876	
1308	12.06557	
1309	11.83238	
1310	11.59919	
1311	11.366	
1312	11.13281	
1313	10.92164	
1314	10.73539	
1315	10.54914	
1316	10.36289	
1317	10.17664	
1318	9.990392	
1319	9.802544	
1320	9.604177	
1321	9.405808	
1322	9.20744	
1323	9.009073	
1324	8.810705	
1325	8.612337	
1326	8.282845	
1327	7.91975	
1328	7.556656	
1329	7.193562	
1330	6.830468	
1331	6.467374	
1332	6.204521	
1333	6.058383	
1334	5.912245	
1335	5.766107	
1336	5.619968	
1337	5.47383	
1338	5.315331	
1339	5.072656	
1340	4.829981	
1341	4.587306	
1342	4.344631	
1343	4.101956	
1344	3.859282	
1345	3.51425	
1346	3.142989	
1347	2.771729	
1348	2.400468	
1349	2.029207	
1350	1.657947	
1351	1.402757	
1352	1.281131	
1353	1.159504	
1354	1.037878	
1355	0.9162514	
1356	0.7946249	
1357	0.6858234	
1358	0.6591904	
1359	0.6325575	
1360	0.6059244	
1361	0.5792915	
1362	0.5526584	
1363	0.5260255	
1364	0.5101687	
1365	0.4969053	
1366	0.4836418	
1367	0.4703783	
1368	0.4571149	
1369	0.4438514	
1370	0.432105	
1371	0.4220152	
1372	0.4119253	
1373	0.4018354	
1374	0.3917455	
1375	0.3816557	
1376	0.3722754	
1377	0.3668852	
1378	0.3614949	
1379	0.3561046	
1380	0.3507143	
1381	0.345324	
1382	0.3399337	
1383	0.3336318	
1384	0.3271364	
1385	0.320641	
1386	0.3141457	
1387	0.3076503	
1388	0.3011549	
1389	0.2960473	
1390	0.2923275	
1391	0.2886077	
1392	0.2848879	
1393	0.2811681	
1394	0.2774483	
1395	0.2737359	
1396	0.2700582	
1397	0.2663805	
1398	0.2627028	
1399	0.259025	
1400	0.2553473	
1401	0.2516696	
1402	0.2517175	
1403	0.2524025	
1404	0.2530873	
1405	0.2537723	
1406	0.2544572	
1407	0.2551421	
1408	0.2586517	
1409	0.2646464	
1410	0.2706412	
1411	0.2766359	
1412	0.2826306	
1413	0.2886254	
1414	0.2952808	
1415	0.3043913	
1416	0.3135018	
1417	0.3226124	
1418	0.3317229	
1419	0.3408334	
1420	0.349944	
1421	0.3751549	
1422	0.402296	
1423	0.4294372	
1424	0.4565783	
1425	0.4837195	
1426	0.5108606	
1427	0.5347325	
1428	0.5561778	
1429	0.5776231	
1430	0.5990685	
1431	0.6205137	
1432	0.6419591	
1433	0.6590136	
1434	0.6633715	
1435	0.6677294	
1436	0.6720873	
1437	0.6764451	
1438	0.6808029	
1439	0.6851608
